t (s),V (mV)
0,14.8693
0.973,14.8546
1.911,14.8451
2.851,14.8357
3.829,14.8258
4.829,14.8164
5.829,14.805
6.829,14.7956
7.829,14.7855
8.829,14.7743
9.829,14.7646
10.828,14.7549
11.828,14.7449
12.828,14.7357
13.828,14.7265
14.828,14.7171
15.828,14.7064
16.829,14.6973
17.829,14.6879
18.829,14.6783
19.829,14.6693
20.828,14.6606
21.828,14.6513
22.829,14.6425
23.829,14.6338
24.829,14.6247
25.829,14.6158
26.828,14.6074
27.828,14.5981
28.828,14.5897
29.828,14.5808
30.829,14.5717
31.829,14.5632
32.829,14.5545
33.828,14.5471
34.828,14.538
35.828,14.5296
36.829,14.5211
37.829,14.5123
38.829,14.5045
39.829,14.4958
40.828,14.4873
41.828,14.4784
42.828,14.47
43.829,14.4612
44.829,14.4535
45.829,14.4439
46.828,14.4376
47.828,14.4289
48.828,14.4195
49.828,14.4102
50.829,14.4026
51.829,14.3934
52.828,14.3859
53.829,14.3777
54.829,14.3693
55.829,14.3614
56.828,14.3526
57.829,14.3449
58.829,14.3357
59.829,14.3282
60.828,14.32
61.828,14.3119
62.828,14.3037
63.829,14.2959
64.829,14.2875
65.829,14.2809
66.828,14.2723
67.828,14.2653
68.829,14.2567
69.829,14.2485
70.829,14.2394
71.829,14.2313
72.828,14.2236
73.828,14.2157
74.829,14.2076
75.829,14.1999
76.828,14.1922
77.828,14.1842
78.829,14.176
79.829,14.1682
80.829,14.1611
81.828,14.153
82.829,14.1445
83.829,14.136
84.828,14.1273
85.828,14.1218
86.828,14.1139
87.828,14.1067
88.829,14.0989
89.829,14.0909
90.829,14.0832
91.828,14.0756
92.828,14.0663
93.829,14.0611
94.829,14.0514
95.828,14.0444
96.828,14.0355
97.829,14.0273
98.828,14.0211
99.828,14.0124
100.828,14.0044
101.829,13.9966
102.829,13.9887
103.828,13.9815
104.829,13.9734
105.829,13.9661
106.828,13.9566
107.828,13.9499
108.829,13.9424
109.829,13.9362
110.828,13.9278
111.828,13.9206
112.828,13.9127
113.829,13.9052
114.829,13.8969
115.828,13.8899
116.828,13.8819
117.828,13.8753
118.829,13.8677
119.829,13.8604
120.828,13.8534
121.828,13.8457
122.829,13.8378
123.829,13.8303
124.828,13.8226
125.828,13.814
126.829,13.8075
127.829,13.8008
128.828,13.7934
129.829,13.7867
130.829,13.7762
131.828,13.7718
132.829,13.766
133.829,13.7576
134.828,13.7508
135.829,13.7446
136.828,13.7383
137.829,13.7294
138.828,13.7216
139.829,13.7144
140.829,13.7073
141.828,13.6988
142.828,13.6919
143.829,13.6852
144.828,13.6779
145.829,13.6717
146.829,13.6632
147.828,13.6561
148.828,13.6493
149.829,13.642
150.828,13.6353
151.829,13.6287
152.828,13.6203
153.829,13.6131
154.829,13.6068
155.828,13.5991
156.828,13.5919
157.829,13.5851
158.828,13.5772
159.829,13.5702
160.829,13.5647
161.828,13.5583
162.829,13.5515
163.829,13.5447
164.829,13.5378
165.828,13.5317
166.829,13.5247
167.829,13.5178
168.829,13.511
169.828,13.5039
170.829,13.498
171.829,13.4903
172.828,13.4847
173.829,13.4777
174.828,13.471
175.828,13.4646
176.829,13.4576
177.828,13.4503
178.829,13.4441
179.829,13.4367
180.829,13.4304
181.828,13.4235
182.829,13.4163
183.829,13.409
184.828,13.403
185.829,13.3959
186.829,13.389
187.829,13.3824
188.829,13.3753
189.828,13.3691
190.829,13.3629
191.828,13.3565
192.829,13.3495
193.828,13.3438
194.829,13.3367
195.828,13.3305
196.829,13.3229
197.828,13.3174
198.829,13.3106
199.828,13.3033
200.829,13.2967
201.829,13.2907
202.828,13.284
203.829,13.278
204.828,13.2724
205.829,13.2659
206.828,13.2591
207.829,13.2532
208.828,13.2462
209.829,13.2396
210.828,13.2329
211.829,13.2268
212.829,13.2205
213.828,13.2145
214.829,13.2077
215.829,13.2008
216.828,13.194
217.829,13.1882
218.828,13.182
219.828,13.1758
220.829,13.1676
221.828,13.1615
222.829,13.1538
223.828,13.1476
224.829,13.1414
225.828,13.1358
226.829,13.129
227.829,13.1223
228.829,13.1156
229.829,13.1109
230.829,13.1036
231.828,13.0982
232.829,13.0902
233.829,13.0857
234.829,13.0778
235.829,13.072
236.829,13.0643
237.829,13.059
238.829,13.0522
239.829,13.0461
240.828,13.0393
241.828,13.0338
242.829,13.0266
243.828,13.0213
244.829,13.0143
245.829,13.0086
246.828,13.0023
247.829,12.9964
248.828,12.9899
249.829,12.9839
250.829,12.9773
251.828,12.9715
252.829,12.9656
253.829,12.9596
254.828,12.9531
255.829,12.9477
256.828,12.9423
257.828,12.9358
258.829,12.9287
259.829,12.9237
260.828,12.9173
261.829,12.9111
262.829,12.9043
263.829,12.9001
264.829,12.8856
265.828,12.8868
266.829,12.8797
267.829,12.8743
268.829,12.8677
269.829,12.8609
270.828,12.8564
271.829,12.85
272.829,12.8439
273.829,12.837
274.829,12.8314
275.828,12.8251
276.829,12.8196
277.829,12.8136
278.828,12.8084
279.829,12.802
280.829,12.7956
281.828,12.7901
282.829,12.7842
283.828,12.7782
284.829,12.772
285.828,12.7666
286.829,12.7599
287.828,12.7536
288.829,12.7465
289.829,12.7419
290.828,12.7355
291.829,12.7295
292.829,12.7233
293.828,12.717
294.829,12.7106
295.829,12.7043
296.828,12.6988
297.829,12.6927
298.828,12.6867
299.829,12.6803
300.828,12.6748
301.829,12.6689
302.829,12.6635
303.829,12.6557
304.829,12.65
305.828,12.645
306.829,12.6383
307.829,12.6325
308.829,12.6269
309.828,12.6218
310.829,12.6158
311.829,12.6091
312.828,12.6041
313.829,12.5981
314.829,12.592
315.828,12.5875
316.829,12.5809
317.828,12.5764
318.829,12.5704
319.828,12.5657
320.828,12.5595
321.829,12.5539
322.828,12.5488
323.828,12.5434
324.829,12.5379
325.828,12.5315
326.829,12.5249
327.829,12.5217
328.828,12.5147
329.829,12.5098
330.829,12.504
331.828,12.4989
332.829,12.4936
333.829,12.487
334.828,12.4822
335.829,12.4761
336.829,12.471
337.828,12.4654
338.829,12.4593
339.829,12.4545
340.828,12.449
341.829,12.4427
342.829,12.4382
343.828,12.4328
344.829,12.4265
345.829,12.4213
346.829,12.4155
347.829,12.4104
348.828,12.4049
349.829,12.3986
350.829,12.3934
351.829,12.3876
352.829,12.3825
353.828,12.3779
354.829,12.3719
355.828,12.3667
356.829,12.3608
357.829,12.3554
358.828,12.3502
359.829,12.3444
360.828,12.3389
361.829,12.3335
362.829,12.3272
363.829,12.3223
364.828,12.3171
365.829,12.3113
366.829,12.3049
367.829,12.2993
368.828,12.2934
369.829,12.2885
370.829,12.2828
371.828,12.2776
372.829,12.2716
373.829,12.2673
374.828,12.2614
375.828,12.2568
376.829,12.2518
377.829,12.2443
378.828,12.2405
379.829,12.2345
380.829,12.2295
381.829,12.2242
382.829,12.2176
383.828,12.2132
384.829,12.2085
385.829,12.2022
386.829,12.1966
387.828,12.1911
388.829,12.1862
389.829,12.1804
390.828,12.1746
391.829,12.1702
392.829,12.1644
393.828,12.1598
394.829,12.1536
395.829,12.1477
396.828,12.1427
397.829,12.1379
398.829,12.1318
399.829,12.1266
400.829,12.1214
401.829,12.1155
402.829,12.1093
403.829,12.1043
404.828,12.0997
405.829,12.0945
406.829,12.0888
407.829,12.084
408.829,12.078
409.828,12.072
410.829,12.0687
411.829,12.0617
412.828,12.0568
413.829,12.0517
414.829,12.046
415.828,12.0407
416.829,12.0347
417.829,12.0298
418.829,12.0246
419.828,12.0181
420.829,12.0142
421.829,12.009
422.829,12.004
423.829,11.9972
424.829,11.9922
425.828,11.9873
426.829,11.9815
427.829,11.9764
428.829,11.9718
429.829,11.9676
430.829,11.9617
431.828,11.9562
432.829,11.9513
433.829,11.9453
434.829,11.9409
435.829,11.9362
436.828,11.9316
437.829,11.9256
438.828,11.9216
439.829,11.9171
440.829,11.9109
441.829,11.9063
442.829,11.9025
443.828,11.8973
444.828,11.8918
445.829,11.8867
446.829,11.8815
447.829,11.8766
448.829,11.872
449.828,11.8672
450.828,11.8625
451.829,11.8577
452.829,11.8522
453.828,11.8473
454.828,11.843
455.828,11.8369
456.829,11.8323
457.829,11.8272
458.829,11.822
459.829,11.818
460.829,11.8112
461.829,11.8077
462.829,11.8012
463.829,11.7955
464.828,11.7913
465.828,11.7867
466.828,11.7814
467.828,11.7769
468.828,11.7721
469.829,11.767
470.829,11.7617
471.828,11.7563
472.828,11.7518
473.829,11.747
474.829,11.7422
475.828,11.7359
476.829,11.7316
477.829,11.727
478.829,11.7222
479.829,11.717
480.829,11.712
481.828,11.706
482.828,11.7023
483.829,11.6978
484.829,11.6922
485.829,11.6881
486.829,11.6822
487.829,11.6777
488.828,11.6725
489.829,11.6675
490.829,11.6611
491.829,11.6564
492.828,11.6517
493.828,11.6456
494.829,11.6411
495.829,11.6361
496.829,11.6312
497.828,11.6266
498.829,11.6219
499.828,11.6164
500.829,11.6118
501.829,11.607
502.829,11.6007
503.829,11.5969
504.829,11.5909
505.829,11.586
506.829,11.5786
507.829,11.5786
508.829,11.5713
509.828,11.5672
510.828,11.5625
511.828,11.5569
512.828,11.5525
513.828,11.5478
514.828,11.5418
515.828,11.5383
516.828,11.5324
517.828,11.5271
518.828,11.5231
519.828,11.5173
520.828,11.5121
521.828,11.5073
522.829,11.5034
523.828,11.498
524.829,11.4925
525.829,11.4872
